## ORBS filter file
# Author: Simon Prunet <prunet@cfht.hawaii.edu>
# Filter name : C4
# Filter edges are taken at 90% (FILTER_MIN) and 90% (FILTER_MAX)
# Wavelength in nm | Transmission percentage
# FILTER_MIN 798
# FILTER_MAX 823
# ORDER 12
# STEP 5271.5
# PHASE_FIT_ORDER 1
# MODULATION_EFFICIENCY 0.8
1000.0000 0.0000
999.7332 0.0000
999.4665 0.0000
999.1997 0.0000
998.9330 0.0000
998.6662 0.0000
998.3995 0.0000
998.1327 0.0000
997.8660 0.0000
997.5992 0.0000
997.3324 0.0000
997.0657 0.0000
996.7989 0.0000
996.5322 0.0000
996.2654 0.0000
995.9987 0.0000
995.7319 0.0000
995.4652 0.0000
995.1984 0.0000
994.9316 0.0000
994.6649 0.0000
994.3981 0.0000
994.1314 0.0000
993.8646 0.0000
993.5979 0.0000
993.3311 0.0000
993.0644 0.0000
992.7976 0.0000
992.5308 0.0000
992.2641 0.0000
991.9973 0.0000
991.7306 0.0000
991.4638 0.0000
991.1971 0.0000
990.9303 0.0000
990.6636 0.0000
990.3968 0.0000
990.1300 0.0000
989.8633 0.0000
989.5965 0.0000
989.3298 0.0000
989.0630 0.0000
988.7963 0.0000
988.5295 0.0000
988.2628 0.0000
987.9960 0.0000
987.7292 0.0000
987.4625 0.0000
987.1957 0.0000
986.9290 0.0000
986.6622 0.0000
986.3955 0.0000
986.1287 0.0000
985.8620 0.0000
985.5952 0.0000
985.3284 0.0000
985.0617 0.0000
984.7949 0.0000
984.5282 0.0000
984.2614 0.0000
983.9947 0.0000
983.7279 0.0000
983.4612 0.0000
983.1944 0.0000
982.9276 0.0000
982.6609 0.0000
982.3941 0.0000
982.1274 0.0000
981.8606 0.0000
981.5939 0.0000
981.3271 0.0000
981.0604 0.0000
980.7936 0.0000
980.5268 0.0000
980.2601 0.0000
979.9933 0.0000
979.7266 0.0000
979.4598 0.0000
979.1931 0.0000
978.9263 0.0000
978.6596 0.0000
978.3928 0.0000
978.1260 0.0000
977.8593 0.0000
977.5925 0.0000
977.3258 0.0000
977.0590 0.0000
976.7923 0.0000
976.5255 0.0000
976.2588 0.0000
975.9920 0.0000
975.7252 0.0000
975.4585 0.0000
975.1917 0.0000
974.9250 0.0000
974.6582 0.0000
974.3915 0.0000
974.1247 0.0000
973.8580 0.0000
973.5912 0.0000
973.3244 0.0000
973.0577 0.0000
972.7909 0.0000
972.5242 0.0000
972.2574 0.0000
971.9907 0.0000
971.7239 0.0000
971.4572 0.0000
971.1904 0.0000
970.9236 0.0000
970.6569 0.0000
970.3901 0.0000
970.1234 0.0000
969.8566 0.0000
969.5899 0.0000
969.3231 0.0000
969.0564 0.0000
968.7896 0.0000
968.5228 0.0000
968.2561 0.0000
967.9893 0.0000
967.7226 0.0000
967.4558 0.0000
967.1891 0.0000
966.9223 0.0000
966.6556 0.0000
966.3888 0.0000
966.1220 0.0000
965.8553 0.0000
965.5885 0.0000
965.3218 0.0000
965.0550 0.0000
964.7883 0.0000
964.5215 0.0000
964.2548 0.0000
963.9880 0.0000
963.7212 0.0000
963.4545 0.0000
963.1877 0.0000
962.9210 0.0000
962.6542 0.0000
962.3875 0.0000
962.1207 0.0000
961.8540 0.0000
961.5872 0.0000
961.3204 0.0000
961.0537 0.0000
960.7869 0.0000
960.5202 0.0000
960.2534 0.0000
959.9867 0.0000
959.7199 0.0000
959.4532 0.0000
959.1864 0.0000
958.9196 0.0000
958.6529 0.0000
958.3861 0.0000
958.1194 0.0000
957.8526 0.0000
957.5859 0.0000
957.3191 0.0000
957.0524 0.0000
956.7856 0.0000
956.5188 0.0000
956.2521 0.0000
955.9853 0.0000
955.7186 0.0000
955.4518 0.0000
955.1851 0.0000
954.9183 0.0000
954.6516 0.0000
954.3848 0.0000
954.1180 0.0000
953.8513 0.0000
953.5845 0.0000
953.3178 0.0000
953.0510 0.0000
952.7843 0.0000
952.5175 0.0000
952.2508 0.0000
951.9840 0.0000
951.7172 0.0000
951.4505 0.0000
951.1837 0.0000
950.9170 0.0000
950.6502 0.0000
950.3835 0.0000
950.1167 0.0000
949.8499 0.0000
949.5832 0.0000
949.3164 0.0000
949.0497 0.0000
948.7829 0.0000
948.5162 0.0000
948.2494 0.0000
947.9827 0.0000
947.7159 0.0000
947.4491 0.0000
947.1824 0.0000
946.9156 0.0000
946.6489 0.0000
946.3821 0.0000
946.1154 0.0000
945.8486 0.0000
945.5819 0.0000
945.3151 0.0000
945.0483 0.0000
944.7816 0.0000
944.5148 0.0000
944.2481 0.0000
943.9813 0.0000
943.7146 0.0000
943.4478 0.0000
943.1811 0.0000
942.9143 0.0000
942.6475 0.0000
942.3808 0.0000
942.1140 0.0000
941.8473 0.0000
941.5805 0.0000
941.3138 0.0000
941.0470 0.0000
940.7803 0.0000
940.5135 0.0000
940.2467 0.0000
939.9800 0.0000
939.7132 0.0000
939.4465 0.0000
939.1797 0.0000
938.9130 0.0000
938.6462 0.0000
938.3795 0.0000
938.1127 0.0000
937.8459 0.0000
937.5792 0.0000
937.3124 0.0000
937.0457 0.0000
936.7789 0.0000
936.5122 0.0000
936.2454 0.0000
935.9787 0.0000
935.7119 0.0000
935.4451 0.0000
935.1784 0.0000
934.9116 0.0000
934.6449 0.0000
934.3781 0.0000
934.1114 0.0000
933.8446 0.0000
933.5779 0.0000
933.3111 0.0000
933.0443 0.0000
932.7776 0.0000
932.5108 0.0000
932.2441 0.0000
931.9773 0.0000
931.7106 0.0000
931.4438 0.0000
931.1771 0.0000
930.9103 0.0000
930.6435 0.0000
930.3768 0.0000
930.1100 0.0000
929.8433 0.0000
929.5765 0.0000
929.3098 0.0000
929.0430 0.0000
928.7763 0.0000
928.5095 0.0000
928.2427 0.0000
927.9760 0.0000
927.7092 0.0000
927.4425 0.0000
927.1757 0.0000
926.9090 0.0000
926.6422 0.0000
926.3755 0.0000
926.1087 0.0000
925.8419 0.0000
925.5752 0.0000
925.3084 0.0000
925.0417 0.0000
924.7749 0.0000
924.5082 0.0000
924.2414 0.0000
923.9747 0.0000
923.7079 0.0000
923.4411 0.0000
923.1744 0.0000
922.9076 0.0000
922.6409 0.0000
922.3741 0.0000
922.1074 0.0000
921.8406 0.0000
921.5739 0.0000
921.3071 0.0000
921.0403 0.0000
920.7736 0.0000
920.5068 0.0000
920.2401 0.0000
919.9733 0.0000
919.7066 0.0000
919.4398 0.0000
919.1731 0.0000
918.9063 0.0000
918.6395 0.0000
918.3728 0.0000
918.1060 0.0000
917.8393 0.0000
917.5725 0.0000
917.3058 0.0000
917.0390 0.0000
916.7723 0.0000
916.5055 0.0000
916.2387 0.0000
915.9720 0.0000
915.7052 0.0000
915.4385 0.0000
915.1717 0.0000
914.9050 0.0000
914.6382 0.0000
914.3715 0.0000
914.1047 0.0000
913.8379 0.0000
913.5712 0.0000
913.3044 0.0000
913.0377 0.0000
912.7709 0.0000
912.5042 0.0000
912.2374 0.0000
911.9707 0.0000
911.7039 0.0000
911.4371 0.0000
911.1704 0.0000
910.9036 0.0000
910.6369 0.0000
910.3701 0.0000
910.1034 0.0000
909.8366 0.0000
909.5699 0.0000
909.3031 0.0000
909.0363 0.0000
908.7696 0.0000
908.5028 0.0000
908.2361 0.0000
907.9693 0.0000
907.7026 0.0000
907.4358 0.0000
907.1691 0.0000
906.9023 0.0000
906.6355 0.0000
906.3688 0.0000
906.1020 0.0000
905.8353 0.0000
905.5685 0.0000
905.3018 0.0000
905.0350 0.0000
904.7683 0.0000
904.5015 0.0000
904.2347 0.0000
903.9680 0.0000
903.7012 0.0000
903.4345 0.0000
903.1677 0.0000
902.9010 0.0000
902.6342 0.0000
902.3675 0.0000
902.1007 0.0000
901.8339 0.0000
901.5672 0.0000
901.3004 0.0000
901.0337 0.0000
900.7669 0.0000
900.5002 0.0000
900.2334 0.0000
899.9667 0.0000
899.6999 0.0000
899.4331 0.0000
899.1664 0.0000
898.8996 0.0000
898.6329 0.0000
898.3661 0.0000
898.0994 0.0000
897.8326 0.0000
897.5659 0.0000
897.2991 0.0000
897.0323 0.0000
896.7656 0.0000
896.4988 0.0000
896.2321 0.0000
895.9653 0.0000
895.6986 0.0000
895.4318 0.0000
895.1651 0.0000
894.8983 0.0000
894.6315 0.0000
894.3648 0.0000
894.0980 0.0000
893.8313 0.0000
893.5645 0.0000
893.2978 0.0000
893.0310 0.0000
892.7643 0.0000
892.4975 0.0000
892.2307 0.0000
891.9640 0.0000
891.6972 0.0000
891.4305 0.0000
891.1637 0.0000
890.8970 0.0000
890.6302 0.0000
890.3635 0.0000
890.0967 0.0000
889.8299 0.0000
889.5632 0.0000
889.2964 0.0000
889.0297 0.0000
888.7629 0.0000
888.4962 0.0000
888.2294 0.0000
887.9627 0.0000
887.6959 0.0000
887.4291 0.0000
887.1624 0.0000
886.8956 0.0000
886.6289 0.0000
886.3621 0.0000
886.0954 0.0000
885.8286 0.0000
885.5619 0.0000
885.2951 0.0000
885.0283 0.0000
884.7616 0.0000
884.4948 0.0000
884.2281 0.0000
883.9613 0.0000
883.6946 0.0000
883.4278 0.0000
883.1611 0.0000
882.8943 0.0000
882.6275 0.0000
882.3608 0.0000
882.0940 0.0000
881.8273 0.0000
881.5605 0.0000
881.2938 0.0000
881.0270 0.0000
880.7603 0.0000
880.4935 0.0000
880.2267 0.0000
879.9600 0.0000
879.6932 0.0000
879.4265 0.0000
879.1597 0.0000
878.8930 0.0000
878.6262 0.0000
878.3595 0.0000
878.0927 0.0000
877.8259 0.0000
877.5592 0.0000
877.2924 0.0000
877.0257 0.0000
876.7589 0.0000
876.4922 0.0000
876.2254 0.0000
875.9587 0.0000
875.6919 0.0000
875.4251 0.0000
875.1584 0.0000
874.8916 0.0000
874.6249 0.0000
874.3581 0.0000
874.0914 0.0000
873.8246 0.0000
873.5579 0.0000
873.2911 0.0000
873.0243 0.0000
872.7576 0.0000
872.4908 0.0000
872.2241 0.0000
871.9573 0.0000
871.6906 0.0000
871.4238 0.0000
871.1571 0.0000
870.8903 0.0000
870.6235 0.0000
870.3568 0.0000
870.0900 0.0000
869.8233 0.0000
869.5565 0.0000
869.2898 0.0000
869.0230 0.0000
868.7563 0.0000
868.4895 0.0000
868.2227 0.0000
867.9560 0.0000
867.6892 0.0000
867.4225 0.0000
867.1557 0.0000
866.8890 0.0000
866.6222 0.0000
866.3555 0.0000
866.0887 0.0000
865.8219 0.0000
865.5552 0.0000
865.2884 0.0000
865.0217 0.0000
864.7549 0.0000
864.4882 0.0000
864.2214 0.0000
863.9547 0.0000
863.6879 0.0000
863.4211 0.0000
863.1544 0.0000
862.8876 0.0000
862.6209 0.0000
862.3541 0.0000
862.0874 0.0000
861.8206 0.0000
861.5539 0.0000
861.2871 0.0000
861.0203 0.0000
860.7536 0.0000
860.4868 0.0000
860.2201 0.0000
859.9533 0.0000
859.6866 0.0000
859.4198 0.0000
859.1531 0.0000
858.8863 0.0000
858.6195 0.0000
858.3528 0.0000
858.0860 0.0000
857.8193 0.0000
857.5525 0.0000
857.2858 0.0000
857.0190 0.0000
856.7523 0.0000
856.4855 0.0000
856.2187 0.0000
855.9520 0.0000
855.6852 0.0000
855.4185 0.0000
855.1517 0.0000
854.8850 0.0000
854.6182 0.0000
854.3515 0.0000
854.0847 0.0000
853.8179 0.0000
853.5512 0.0000
853.2844 0.0000
853.0177 0.0000
852.7509 0.0000
852.4842 0.0000
852.2174 0.0000
851.9507 0.0000
851.6839 0.0000
851.4171 0.0000
851.1504 0.0000
850.8836 0.0000
850.6169 0.0000
850.3501 0.0000
850.0834 0.0000
849.8166 0.0000
849.5498 0.0000
849.2831 0.0000
849.0163 0.0000
848.7496 0.0000
848.4828 0.0000
848.2161 0.0000
847.9493 0.0000
847.6826 0.0000
847.4158 0.0000
847.1490 0.0000
846.8823 0.0000
846.6155 0.0000
846.3488 0.0000
846.0820 0.0000
845.8153 0.0000
845.5485 0.0000
845.2818 0.0000
845.0150 0.0000
844.7482 0.0000
844.4815 0.0000
844.2147 0.0000
843.9480 0.0000
843.6812 0.0000
843.4145 0.0000
843.1477 0.0000
842.8810 0.0000
842.6142 0.0000
842.3474 0.0000
842.0807 0.0000
841.8139 0.0000
841.5472 0.0000
841.2804 0.0000
841.0137 0.0000
840.7469 0.0000
840.4802 0.0000
840.2134 0.0000
839.9466 0.0000
839.6799 0.0000
839.4131 0.0000
839.1464 0.0000
838.8796 0.0000
838.6129 0.0000
838.3461 0.0000
838.0794 0.0000
837.8126 0.0000
837.5458 0.0000
837.2791 0.0000
837.0123 0.0000
836.7456 0.0000
836.4788 0.0000
836.2121 0.0000
835.9453 0.0000
835.6786 0.0000
835.4118 0.0000
835.1450 0.0000
834.8783 0.0000
834.6115 0.0000
834.3448 0.0000
834.0780 0.0000
833.8113 0.0000
833.5445 0.0000
833.2778 0.0000
833.0110 0.0000
832.7442 0.0000
832.4775 0.0000
832.2107 0.0000
831.9440 0.0000
831.6772 0.0000
831.4105 0.0000
831.1437 0.0000
830.8770 0.0000
830.6102 0.0000
830.3434 0.0000
830.0767 0.0000
829.8099 0.0585
829.5432 0.1190
829.2764 0.2936
829.0097 0.4028
828.7429 0.4268
828.4762 0.2737
828.2094 0.4256
827.9426 0.6173
827.6759 0.5838
827.4091 0.5645
827.1424 0.7337
826.8756 0.8354
826.6089 0.9919
826.3421 1.1504
826.0754 1.6708
825.8086 2.0477
825.5418 3.4521
825.2751 5.9072
825.0083 9.9996
824.7416 16.7432
824.4748 28.6426
824.2081 46.3438
823.9413 64.7871
823.6746 80.2230
823.4078 91.3415
823.1410 95.4365
822.8743 94.3584
822.6075 95.5553
822.3408 97.1153
822.0740 97.4617
821.8073 98.5787
821.5405 97.5624
821.2738 97.0956
821.0070 96.9581
820.7402 97.6644
820.4735 99.1812
820.2067 98.7001
819.9400 99.4342
819.6732 99.2863
819.4065 98.2354
819.1397 98.7567
818.8730 99.1383
818.6062 98.0312
818.3394 97.5202
818.0727 97.0866
817.8059 97.0352
817.5392 98.8519
817.2724 99.1413
817.0057 98.8490
816.7389 97.9126
816.4722 97.2262
816.2054 97.4178
815.9386 98.1379
815.6719 98.6394
815.4051 98.9923
815.1384 97.4477
814.8716 97.2882
814.6049 97.2288
814.3381 97.4622
814.0714 98.7817
813.8046 99.0969
813.5378 99.7496
813.2711 99.4308
813.0043 99.1990
812.7376 97.8962
812.4708 97.0878
812.2041 97.9624
811.9373 98.5236
811.6706 98.0328
811.4038 97.9180
811.1370 96.9556
810.8703 97.5852
810.6035 99.0708
810.3368 99.4721
810.0700 98.8377
809.8033 98.0454
809.5365 99.2935
809.2698 99.0079
809.0030 98.6110
808.7362 99.1791
808.4695 98.4482
808.2027 97.9639
807.9360 97.3049
807.6692 98.0722
807.4025 98.8413
807.1357 97.2372
806.8690 96.3682
806.6022 96.6190
806.3354 96.9564
806.0687 98.8503
805.8019 99.5048
805.5352 98.1641
805.2684 98.2480
805.0017 98.5315
804.7349 97.7429
804.4682 96.2018
804.2014 96.9110
803.9346 96.5853
803.6679 95.1712
803.4011 97.2978
803.1344 98.6991
802.8676 97.9780
802.6009 98.8718
802.3341 99.2098
802.0674 99.1080
801.8006 98.6336
801.5338 97.0115
801.2671 97.7031
801.0003 98.5226
800.7336 99.0048
800.4668 98.3007
800.2001 97.3065
799.9333 96.9467
799.6666 97.1625
799.3998 98.0408
799.1330 97.6913
798.8663 96.0124
798.5995 92.7428
798.3328 85.4823
798.0660 71.9345
797.7993 52.7880
797.5325 32.1567
797.2658 17.1620
796.9990 8.8942
796.7322 4.4829
796.4655 2.3254
796.1987 1.5413
795.9320 0.8456
795.6652 0.4805
795.3985 0.5384
795.1317 0.2893
794.8650 0.2364
794.5982 0.3896
794.3314 0.2172
794.0647 0.0968
793.7979 0.2206
793.5312 0.3676
793.2644 0.1782
792.9977 0.0724
792.7309 0.2944
792.4642 0.3493
792.1974 0.1902
791.9306 0.0000
791.6639 0.0000
791.3971 0.0000
791.1304 0.0000
790.8636 0.0000
790.5969 0.0000
790.3301 0.0000
790.0634 0.0000
789.7966 0.0000
789.5298 0.0000
789.2631 0.0000
788.9963 0.0000
788.7296 0.0000
788.4628 0.0000
788.1961 0.0000
787.9293 0.0000
787.6626 0.0000
787.3958 0.0000
787.1290 0.0000
786.8623 0.0000
786.5955 0.0000
786.3288 0.0000
786.0620 0.0000
785.7953 0.0000
785.5285 0.0000
785.2618 0.0000
784.9950 0.0000
784.7282 0.0000
784.4615 0.0000
784.1947 0.0000
783.9280 0.0000
783.6612 0.0000
783.3945 0.0000
783.1277 0.0000
782.8610 0.0000
782.5942 0.0000
782.3274 0.0000
782.0607 0.0000
781.7939 0.0000
781.5272 0.0000
781.2604 0.0000
780.9937 0.0000
780.7269 0.0000
780.4602 0.0000
780.1934 0.0000
779.9266 0.0000
779.6599 0.0000
779.3931 0.0000
779.1264 0.0000
778.8596 0.0000
778.5929 0.0000
778.3261 0.0000
778.0594 0.0000
777.7926 0.0000
777.5258 0.0000
777.2591 0.0000
776.9923 0.0000
776.7256 0.0000
776.4588 0.0000
776.1921 0.0000
775.9253 0.0000
775.6586 0.0000
775.3918 0.0000
775.1250 0.0000
774.8583 0.0000
774.5915 0.0000
774.3248 0.0000
774.0580 0.0000
773.7913 0.0000
773.5245 0.0000
773.2578 0.0000
772.9910 0.0000
772.7242 0.0000
772.4575 0.0000
772.1907 0.0000
771.9240 0.0000
771.6572 0.0000
771.3905 0.0000
771.1237 0.0000
770.8570 0.0000
770.5902 0.0000
770.3234 0.0000
770.0567 0.0000
769.7899 0.0000
769.5232 0.0000
769.2564 0.0000
768.9897 0.0000
768.7229 0.0000
768.4562 0.0000
768.1894 0.0000
767.9226 0.0000
767.6559 0.0000
767.3891 0.0000
767.1224 0.0000
766.8556 0.0000
766.5889 0.0000
766.3221 0.0000
766.0554 0.0000
765.7886 0.0000
765.5218 0.0000
765.2551 0.0000
764.9883 0.0000
764.7216 0.0000
764.4548 0.0000
764.1881 0.0000
763.9213 0.0000
763.6546 0.0000
763.3878 0.0000
763.1210 0.0000
762.8543 0.0000
762.5875 0.0000
762.3208 0.0000
762.0540 0.0000
761.7873 0.0000
761.5205 0.0000
761.2538 0.0000
760.9870 0.0000
760.7202 0.0000
760.4535 0.0000
760.1867 0.0000
759.9200 0.0000
759.6532 0.0000
759.3865 0.0000
759.1197 0.0000
758.8530 0.0000
758.5862 0.0000
758.3194 0.0000
758.0527 0.0000
757.7859 0.0000
757.5192 0.0000
757.2524 0.0000
756.9857 0.0000
756.7189 0.0000
756.4522 0.0000
756.1854 0.0000
755.9186 0.0000
755.6519 0.0000
755.3851 0.0000
755.1184 0.0000
754.8516 0.0000
754.5849 0.0000
754.3181 0.0000
754.0514 0.0000
753.7846 0.0000
753.5178 0.0000
753.2511 0.0000
752.9843 0.0000
752.7176 0.0000
752.4508 0.0000
752.1841 0.0000
751.9173 0.0000
751.6506 0.0000
751.3838 0.0000
751.1170 0.0000
750.8503 0.0000
750.5835 0.0000
750.3168 0.0000
750.0500 0.0000
749.7833 0.0000
749.5165 0.0000
749.2497 0.0000
748.9830 0.0000
748.7162 0.0000
748.4495 0.0000
748.1827 0.0000
747.9160 0.0000
747.6492 0.0000
747.3825 0.0000
747.1157 0.0000
746.8489 0.0000
746.5822 0.0000
746.3154 0.0000
746.0487 0.0000
745.7819 0.0000
745.5152 0.0000
745.2484 0.0000
744.9817 0.0000
744.7149 0.0000
744.4481 0.0000
744.1814 0.0000
743.9146 0.0000
743.6479 0.0000
743.3811 0.0000
743.1144 0.0000
742.8476 0.0000
742.5809 0.0000
742.3141 0.0000
742.0473 0.0000
741.7806 0.0000
741.5138 0.0000
741.2471 0.0000
740.9803 0.0000
740.7136 0.0000
740.4468 0.0000
740.1801 0.0000
739.9133 0.0000
739.6465 0.0000
739.3798 0.0000
739.1130 0.0000
738.8463 0.0000
738.5795 0.0000
738.3128 0.0000
738.0460 0.0000
737.7793 0.0000
737.5125 0.0000
737.2457 0.0000
736.9790 0.0000
736.7122 0.0000
736.4455 0.0000
736.1787 0.0000
735.9120 0.0000
735.6452 0.0000
735.3785 0.0000
735.1117 0.0000
734.8449 0.0000
734.5782 0.0000
734.3114 0.0000
734.0447 0.0000
733.7779 0.0000
733.5112 0.0000
733.2444 0.0000
732.9777 0.0000
732.7109 0.0000
732.4441 0.0000
732.1774 0.0000
731.9106 0.0000
731.6439 0.0000
731.3771 0.0000
731.1104 0.0000
730.8436 0.0000
730.5769 0.0000
730.3101 0.0000
730.0433 0.0000
729.7766 0.0000
729.5098 0.0000
729.2431 0.0000
728.9763 0.0000
728.7096 0.0000
728.4428 0.0000
728.1761 0.0000
727.9093 0.0000
727.6425 0.0000
727.3758 0.0000
727.1090 0.0000
726.8423 0.0000
726.5755 0.0000
726.3088 0.0000
726.0420 0.0000
725.7753 0.0000
725.5085 0.0000
725.2417 0.0000
724.9750 0.0000
724.7082 0.0000
724.4415 0.0000
724.1747 0.0000
723.9080 0.0000
723.6412 0.0000
723.3745 0.0000
723.1077 0.0000
722.8409 0.0000
722.5742 0.0000
722.3074 0.0000
722.0407 0.0000
721.7739 0.0000
721.5072 0.0000
721.2404 0.0000
720.9737 0.0000
720.7069 0.0000
720.4401 0.0000
720.1734 0.0000
719.9066 0.0000
719.6399 0.0000
719.3731 0.0000
719.1064 0.0000
718.8396 0.0000
718.5729 0.0000
718.3061 0.0000
718.0393 0.0000
717.7726 0.0000
717.5058 0.0000
717.2391 0.0000
716.9723 0.0000
716.7056 0.0000
716.4388 0.0000
716.1721 0.0000
715.9053 0.0000
715.6385 0.0000
715.3718 0.0000
715.1050 0.0000
714.8383 0.0000
714.5715 0.0000
714.3048 0.0000
714.0380 0.0000
713.7713 0.0000
713.5045 0.0000
713.2377 0.0000
712.9710 0.0000
712.7042 0.0000
712.4375 0.0000
712.1707 0.0000
711.9040 0.0000
711.6372 0.0000
711.3705 0.0000
711.1037 0.0000
710.8369 0.0000
710.5702 0.0000
710.3034 0.0000
710.0367 0.0000
709.7699 0.0000
709.5032 0.0000
709.2364 0.0000
708.9697 0.0000
708.7029 0.0000
708.4361 0.0000
708.1694 0.0000
707.9026 0.0000
707.6359 0.0000
707.3691 0.0000
707.1024 0.0000
706.8356 0.0000
706.5689 0.0000
706.3021 0.0000
706.0353 0.0000
705.7686 0.0000
705.5018 0.0000
705.2351 0.0000
704.9683 0.0000
704.7016 0.0000
704.4348 0.0000
704.1681 0.0000
703.9013 0.0000
703.6345 0.0000
703.3678 0.0000
703.1010 0.0000
702.8343 0.0000
702.5675 0.0000
702.3008 0.0000
702.0340 0.0000
701.7673 0.0000
701.5005 0.0000
701.2337 0.0000
700.9670 0.0000
700.7002 0.0000
700.4335 0.0000
700.1667 0.0000
699.9000 0.0000
699.6332 0.0000
699.3665 0.0000
699.0997 0.0000
698.8329 0.0000
698.5662 0.0000
698.2994 0.0000
698.0327 0.0000
697.7659 0.0000
697.4992 0.0000
697.2324 0.0000
696.9657 0.0000
696.6989 0.0000
696.4321 0.0000
696.1654 0.0000
695.8986 0.0000
695.6319 0.0000
695.3651 0.0000
695.0984 0.0000
694.8316 0.0000
694.5649 0.0000
694.2981 0.0000
694.0313 0.0000
693.7646 0.0000
693.4978 0.0000
693.2311 0.0000
692.9643 0.0000
692.6976 0.0000
692.4308 0.0000
692.1641 0.0000
691.8973 0.0000
691.6305 0.0000
691.3638 0.0000
691.0970 0.0000
690.8303 0.0000
690.5635 0.0000
690.2968 0.0000
690.0300 0.0000
689.7633 0.0000
689.4965 0.0000
689.2297 0.0000
688.9630 0.0000
688.6962 0.0000
688.4295 0.0000
688.1627 0.0000
687.8960 0.0000
687.6292 0.0000
687.3625 0.0000
687.0957 0.0000
686.8289 0.0000
686.5622 0.0000
686.2954 0.0000
686.0287 0.0000
685.7619 0.0000
685.4952 0.0000
685.2284 0.0000
684.9617 0.0000
684.6949 0.0000
684.4281 0.0000
684.1614 0.0000
683.8946 0.0000
683.6279 0.0000
683.3611 0.0000
683.0944 0.0000
682.8276 0.0000
682.5609 0.0000
682.2941 0.0000
682.0273 0.0000
681.7606 0.0000
681.4938 0.0000
681.2271 0.0000
680.9603 0.0000
680.6936 0.0000
680.4268 0.0000
680.1601 0.0000
679.8933 0.0000
679.6265 0.0000
679.3598 0.0000
679.0930 0.0000
678.8263 0.0000
678.5595 0.0000
678.2928 0.0000
678.0260 0.0000
677.7593 0.0000
677.4925 0.0000
677.2257 0.0000
676.9590 0.0000
676.6922 0.0000
676.4255 0.0000
676.1587 0.0000
675.8920 0.0000
675.6252 0.0000
675.3585 0.0000
675.0917 0.0000
674.8249 0.0000
674.5582 0.0000
674.2914 0.0000
674.0247 0.0000
673.7579 0.0000
